# pressure[GPa]	radius[R_earth] temperature[K] density[g/cc]
1.0000E-04	3.979310	  76.0	4.4876E-04
1.1319E-04	3.978813	  77.9	4.9532E-04
1.2774E-04	3.978316	  79.9	5.4527E-04
1.4373E-04	3.977818	  81.8	5.9840E-04
1.6126E-04	3.977321	  83.8	6.5498E-04
1.8042E-04	3.976823	  85.7	7.1500E-04
2.0132E-04	3.976326	  87.8	7.7872E-04
2.2407E-04	3.975828	  89.8	8.4601E-04
2.4874E-04	3.975331	  91.9	9.1668E-04
3.0434E-04	3.974336	  96.3	1.0696E-03
3.6895E-04	3.973341	 100.8	1.2377E-03
4.4345E-04	3.972347	 105.4	1.4202E-03
5.2866E-04	3.971352	 110.1	1.6181E-03
6.2539E-04	3.970357	 115.0	1.8293E-03
7.3447E-04	3.969362	 120.0	2.0554E-03
8.5669E-04	3.968367	 125.1	2.2951E-03
9.9286E-04	3.967372	 130.4	2.5491E-03
1.1437E-03	3.966378	 135.8	2.8140E-03
1.3099E-03	3.965383	 141.4	3.0901E-03
1.4920E-03	3.964388	 147.1	3.3782E-03
1.6907E-03	3.963393	 153.0	3.6745E-03
1.9066E-03	3.962398	 158.9	3.9824E-03
2.1401E-03	3.961403	 165.0	4.2971E-03
2.3918E-03	3.960409	 171.1	4.6205E-03
2.6621E-03	3.959414	 177.4	4.9510E-03
3.9374E-03	3.955434	 201.9	6.3767E-03
5.5714E-03	3.951455	 224.3	8.0845E-03
7.6186E-03	3.947476	 245.8	9.9714E-03
1.0115E-02	3.943497	 268.5	1.1988E-02
1.3086E-02	3.939517	 291.8	1.4076E-02
1.6556E-02	3.935538	 314.3	1.6343E-02
2.0575E-02	3.931559	 335.7	1.8775E-02
2.5172E-02	3.927579	 356.1	2.1303E-02
3.0369E-02	3.923600	 375.9	2.3916E-02
3.6185E-02	3.919621	 395.2	2.6557E-02
4.2629E-02	3.915641	 414.1	2.9322E-02
4.9746E-02	3.911662	 432.5	3.2169E-02
5.7531E-02	3.907683	 450.6	3.4991E-02
6.5992E-02	3.903703	 468.4	3.7868E-02
7.5141E-02	3.899724	 485.8	4.0747E-02
8.4983E-02	3.895745	 503.1	4.3664E-02
9.5530E-02	3.891766	 520.2	4.6589E-02
1.0678E-01	3.887786	 537.2	4.9470E-02
1.1872E-01	3.883807	 553.9	5.2300E-02
1.3135E-01	3.879828	 570.3	5.5124E-02
1.4467E-01	3.875848	 586.4	5.7983E-02
1.5870E-01	3.871869	 602.1	6.0862E-02
1.7341E-01	3.867890	 617.2	6.3526E-02
1.8878E-01	3.863910	 631.8	6.6188E-02
2.0481E-01	3.859931	 645.9	6.8843E-02
2.2150E-01	3.855952	 659.6	7.1494E-02
2.3886E-01	3.851972	 673.0	7.4144E-02
2.5688E-01	3.847993	 686.2	7.6724E-02
2.7554E-01	3.844014	 699.3	7.9254E-02
2.9484E-01	3.840034	 712.4	8.1777E-02
3.1479E-01	3.836055	 725.5	8.4292E-02
3.3538E-01	3.832076	 738.8	8.6782E-02
3.5660E-01	3.828097	 752.2	8.9238E-02
3.7846E-01	3.824117	 765.7	9.1685E-02
4.0095E-01	3.820138	 779.4	9.4118E-02
4.2408E-01	3.816159	 793.0	9.6549E-02
4.4784E-01	3.812179	 806.6	9.9002E-02
4.7224E-01	3.808200	 820.2	1.0145E-01
4.9729E-01	3.804221	 833.6	1.0389E-01
5.2298E-01	3.800241	 846.8	1.0633E-01
5.4932E-01	3.796262	 859.7	1.0873E-01
5.7629E-01	3.792283	 872.5	1.1112E-01
6.0390E-01	3.788303	 884.9	1.1351E-01
6.3215E-01	3.784324	 896.9	1.1589E-01
6.6102E-01	3.780345	 908.7	1.1803E-01
6.9046E-01	3.776366	 920.0	1.2004E-01
7.2044E-01	3.772386	 930.9	1.2201E-01
7.5096E-01	3.768407	 941.6	1.2396E-01
7.8202E-01	3.764428	 951.9	1.2590E-01
8.1363E-01	3.760448	 961.9	1.2782E-01
8.4577E-01	3.756469	 971.7	1.2973E-01
8.7846E-01	3.752490	 981.2	1.3176E-01
9.1174E-01	3.748510	 990.5	1.3384E-01
9.4559E-01	3.744531	 999.6	1.3588E-01
9.8002E-01	3.740552	1008.6	1.3791E-01
1.0150E+00	3.736572	1017.4	1.3993E-01
1.0506E+00	3.732593	1026.1	1.4195E-01
1.0868E+00	3.728614	1034.6	1.4395E-01
1.1235E+00	3.724634	1043.1	1.4595E-01
1.1608E+00	3.720655	1051.4	1.4795E-01
1.1987E+00	3.716676	1059.6	1.4996E-01
1.2372E+00	3.712697	1067.8	1.5195E-01
1.2762E+00	3.708717	1075.9	1.5395E-01
1.3158E+00	3.704738	1083.9	1.5589E-01
1.3560E+00	3.700759	1091.9	1.5772E-01
1.3967E+00	3.696779	1099.8	1.5955E-01
1.4380E+00	3.692800	1107.7	1.6138E-01
1.4798E+00	3.688821	1115.5	1.6320E-01
1.5222E+00	3.684841	1123.3	1.6502E-01
1.5651E+00	3.680862	1131.0	1.6682E-01
1.6086E+00	3.676883	1138.7	1.6862E-01
1.6526E+00	3.672903	1146.4	1.7042E-01
1.6972E+00	3.668924	1154.0	1.7221E-01
1.7423E+00	3.664945	1161.7	1.7399E-01
1.7880E+00	3.660966	1169.3	1.7577E-01
1.8342E+00	3.656986	1176.9	1.7754E-01
1.8809E+00	3.653007	1184.5	1.7931E-01
1.9282E+00	3.649028	1192.1	1.8107E-01
1.9761E+00	3.645048	1199.8	1.8283E-01
2.0245E+00	3.641069	1207.4	1.8457E-01
2.0735E+00	3.637090	1215.0	1.8631E-01
2.1230E+00	3.633110	1222.6	1.8804E-01
2.1730E+00	3.629131	1230.2	1.8977E-01
2.2237E+00	3.625152	1237.9	1.9149E-01
2.2748E+00	3.621172	1245.5	1.9321E-01
2.3265E+00	3.617193	1253.2	1.9491E-01
2.3788E+00	3.613214	1260.9	1.9653E-01
2.4316E+00	3.609234	1268.6	1.9816E-01
2.4849E+00	3.605255	1276.3	1.9979E-01
2.5388E+00	3.601276	1284.1	2.0140E-01
2.5931E+00	3.597297	1291.8	2.0301E-01
2.6481E+00	3.593317	1299.6	2.0462E-01
2.7035E+00	3.589338	1307.4	2.0622E-01
2.7595E+00	3.585359	1315.2	2.0782E-01
2.8161E+00	3.581379	1323.0	2.0942E-01
2.8731E+00	3.577400	1330.9	2.1102E-01
2.9307E+00	3.573421	1338.8	2.1262E-01
2.9889E+00	3.569441	1346.6	2.1421E-01
3.0476E+00	3.565462	1354.6	2.1580E-01
3.1068E+00	3.561483	1362.5	2.1738E-01
3.1666E+00	3.557503	1370.5	2.1896E-01
3.2269E+00	3.553524	1378.4	2.2054E-01
3.2878E+00	3.549545	1386.4	2.2213E-01
3.3492E+00	3.545566	1394.5	2.2372E-01
3.4112E+00	3.541586	1402.5	2.2531E-01
3.4737E+00	3.537607	1410.6	2.2689E-01
3.5368E+00	3.533628	1418.7	2.2847E-01
3.6005E+00	3.529648	1426.8	2.3005E-01
3.6647E+00	3.525669	1435.0	2.3162E-01
3.7294E+00	3.521690	1443.1	2.3319E-01
3.7947E+00	3.517710	1451.3	2.3476E-01
3.8606E+00	3.513731	1459.6	2.3632E-01
3.9270E+00	3.509752	1467.8	2.3787E-01
3.9940E+00	3.505772	1476.1	2.3943E-01
4.0616E+00	3.501793	1484.4	2.4098E-01
4.1297E+00	3.497814	1492.8	2.4253E-01
4.1984E+00	3.493834	1501.2	2.4407E-01
4.2676E+00	3.489855	1509.5	2.4558E-01
4.3374E+00	3.485876	1518.0	2.4712E-01
4.4078E+00	3.481897	1526.4	2.4866E-01
4.4787E+00	3.477917	1534.9	2.5019E-01
4.5502E+00	3.473938	1543.4	2.5172E-01
4.6223E+00	3.469959	1551.9	2.5325E-01
4.6949E+00	3.465979	1560.5	2.5477E-01
4.7681E+00	3.462000	1569.0	2.5629E-01
4.8419E+00	3.458021	1577.6	2.5781E-01
4.9163E+00	3.454041	1586.2	2.5933E-01
4.9912E+00	3.450062	1594.8	2.6085E-01
5.0667E+00	3.446083	1603.4	2.6237E-01
5.1428E+00	3.442103	1612.0	2.6388E-01
5.2195E+00	3.438124	1620.6	2.6540E-01
5.2967E+00	3.434145	1629.2	2.6691E-01
5.3746E+00	3.430166	1637.8	2.6842E-01
5.4530E+00	3.426186	1646.4	2.6992E-01
5.5320E+00	3.422207	1655.1	2.7143E-01
5.6116E+00	3.418228	1663.7	2.7294E-01
5.6918E+00	3.414248	1672.3	2.7445E-01
5.7726E+00	3.410269	1680.9	2.7596E-01
5.8540E+00	3.406290	1689.5	2.7746E-01
5.9359E+00	3.402310	1698.1	2.7897E-01
6.0185E+00	3.398331	1706.7	2.8047E-01
6.1017E+00	3.394352	1715.3	2.8197E-01
6.1854E+00	3.390372	1723.8	2.8347E-01
6.2698E+00	3.386393	1732.4	2.8497E-01
6.3548E+00	3.382414	1740.9	2.8648E-01
6.4404E+00	3.378434	1749.4	2.8800E-01
6.5266E+00	3.374455	1757.9	2.8953E-01
6.6134E+00	3.370476	1766.4	2.9105E-01
6.7009E+00	3.366497	1774.9	2.9257E-01
6.7889E+00	3.362517	1783.3	2.9409E-01
6.8776E+00	3.358538	1791.7	2.9561E-01
6.9669E+00	3.354559	1800.1	2.9713E-01
7.0569E+00	3.350579	1808.5	2.9864E-01
7.1475E+00	3.346600	1816.9	3.0016E-01
7.2387E+00	3.342621	1825.2	3.0168E-01
7.3305E+00	3.338641	1833.5	3.0320E-01
7.4230E+00	3.334662	1841.8	3.0472E-01
7.5161E+00	3.330683	1850.0	3.0623E-01
7.6098E+00	3.326703	1858.2	3.0775E-01
7.7042E+00	3.322724	1866.4	3.0927E-01
7.7992E+00	3.318745	1874.5	3.1078E-01
7.8949E+00	3.314766	1882.7	3.1230E-01
7.9912E+00	3.310786	1890.7	3.1381E-01
8.0882E+00	3.306807	1898.8	3.1532E-01
8.1858E+00	3.302828	1906.8	3.1683E-01
8.2841E+00	3.298848	1914.8	3.1833E-01
8.3830E+00	3.294869	1922.7	3.1984E-01
8.4826E+00	3.290890	1930.6	3.2134E-01
8.5829E+00	3.286910	1938.5	3.2284E-01
8.6838E+00	3.282931	1946.4	3.2434E-01
8.7853E+00	3.278952	1954.2	3.2584E-01
8.8876E+00	3.274972	1962.0	3.2734E-01
8.9904E+00	3.270993	1969.8	3.2884E-01
9.0940E+00	3.267014	1977.5	3.3034E-01
9.1982E+00	3.263034	1985.3	3.3184E-01
9.3031E+00	3.259055	1993.0	3.3335E-01
9.4087E+00	3.255076	2000.6	3.3487E-01
9.5150E+00	3.251097	2008.3	3.3639E-01
9.6219E+00	3.247117	2015.9	3.3791E-01
9.7296E+00	3.243138	2023.5	3.3942E-01
9.8379E+00	3.239159	2031.1	3.4094E-01
9.9469E+00	3.235179	2038.7	3.4246E-01
1.0057E+01	3.231200	2046.2	3.4397E-01
1.0167E+01	3.227221	2053.8	3.4549E-01
1.0278E+01	3.223241	2061.3	3.4701E-01
1.0390E+01	3.219262	2068.8	3.4852E-01
1.0502E+01	3.215283	2076.3	3.5004E-01
1.0616E+01	3.211303	2083.8	3.5159E-01
1.0730E+01	3.207324	2091.2	3.5313E-01
1.0844E+01	3.203345	2098.7	3.5468E-01
1.0960E+01	3.199366	2106.1	3.5622E-01
1.1076E+01	3.195386	2113.5	3.5776E-01
1.1193E+01	3.191407	2120.9	3.5931E-01
1.1310E+01	3.187428	2128.3	3.6085E-01
1.1429E+01	3.183448	2135.7	3.6239E-01
1.1548E+01	3.179469	2143.1	3.6394E-01
1.1667E+01	3.175490	2150.5	3.6548E-01
1.1788E+01	3.171510	2157.9	3.6703E-01
1.1909E+01	3.167531	2165.2	3.6857E-01
1.2031E+01	3.163552	2172.6	3.7010E-01
1.2154E+01	3.159572	2179.9	3.7164E-01
1.2278E+01	3.155593	2187.3	3.7318E-01
1.2402E+01	3.151614	2194.6	3.7471E-01
1.2527E+01	3.147634	2202.0	3.7625E-01
1.2653E+01	3.143655	2209.3	3.7779E-01
1.2779E+01	3.139676	2216.6	3.7933E-01
1.2906E+01	3.135697	2224.0	3.8086E-01
1.3035E+01	3.131717	2231.3	3.8240E-01
1.3163E+01	3.127738	2238.6	3.8396E-01
1.3293E+01	3.123759	2246.0	3.8554E-01
1.3423E+01	3.119779	2253.3	3.8711E-01
1.3555E+01	3.115800	2260.6	3.8868E-01
1.3687E+01	3.111821	2268.0	3.9025E-01
1.3819E+01	3.107841	2275.3	3.9182E-01
1.3953E+01	3.103862	2282.6	3.9339E-01
1.4087E+01	3.099883	2290.0	3.9496E-01
1.4223E+01	3.095903	2297.3	3.9654E-01
1.4359E+01	3.091924	2304.7	3.9811E-01
1.4495E+01	3.087945	2312.0	3.9968E-01
1.4633E+01	3.083966	2319.4	4.0126E-01
1.4771E+01	3.079986	2326.8	4.0283E-01
1.4795E+01	3.079323	2328.0	4.0310E-01
1.4818E+01	3.078660	2329.2	4.0336E-01
1.4841E+01	3.077997	2330.4	4.0362E-01
1.4864E+01	3.077333	2331.7	4.0388E-01
1.4887E+01	3.076670	2332.9	4.0415E-01
1.4911E+01	3.076007	2334.1	4.0441E-01
1.4934E+01	3.075344	2335.4	4.0467E-01
1.4957E+01	3.074680	2336.6	4.0493E-01
1.4981E+01	3.074017	2337.8	4.0520E-01
1.4986E+01	3.073851	2338.1	4.0526E-01
1.4992E+01	3.073686	2338.4	4.0533E-01
1.4998E+01	3.073520	2338.7	4.0539E-01
1.4999E+01	3.073501	2338.8	4.0540E-01
1.4999E+01	3.073483	2338.8	4.0541E-01
1.5000E+01	3.073465	2338.8	1.1879E+00
1.5008E+01	3.073391	2339.0	1.1881E+00
1.5015E+01	3.073317	2339.3	1.1883E+00
1.5023E+01	3.073243	2339.5	1.1885E+00
1.5031E+01	3.073170	2339.7	1.1887E+00
1.5038E+01	3.073096	2339.9	1.1889E+00
1.5046E+01	3.073022	2340.1	1.1891E+00
1.5054E+01	3.072949	2340.3	1.1893E+00
1.5061E+01	3.072875	2340.5	1.1895E+00
1.5069E+01	3.072801	2340.7	1.1897E+00
1.5076E+01	3.072728	2340.9	1.1899E+00
1.5490E+01	3.068748	2352.0	1.2008E+00
1.5908E+01	3.064769	2363.0	1.2116E+00
1.6329E+01	3.060790	2373.7	1.2223E+00
1.6755E+01	3.056810	2384.4	1.2329E+00
1.7185E+01	3.052831	2395.0	1.2434E+00
1.7618E+01	3.048852	2405.7	1.2539E+00
1.8056E+01	3.044872	2416.3	1.2643E+00
1.8497E+01	3.040893	2427.1	1.2746E+00
1.8942E+01	3.036914	2437.9	1.2848E+00
1.9392E+01	3.032935	2448.8	1.2950E+00
1.9844E+01	3.028955	2459.9	1.3050E+00
2.0301E+01	3.024976	2471.2	1.3151E+00
2.0762E+01	3.020997	2482.7	1.3250E+00
2.1226E+01	3.017017	2494.4	1.3349E+00
2.1694E+01	3.013038	2506.4	1.3447E+00
2.2166E+01	3.009059	2518.7	1.3545E+00
2.2641E+01	3.005079	2531.2	1.3642E+00
2.3120E+01	3.001100	2543.8	1.3739E+00
2.3603E+01	2.997121	2556.6	1.3834E+00
2.4089E+01	2.993141	2569.4	1.3930E+00
2.4579E+01	2.989162	2582.1	1.4024E+00
2.5073E+01	2.985183	2594.7	1.4118E+00
2.5570E+01	2.981204	2607.1	1.4212E+00
2.6070E+01	2.977224	2619.3	1.4305E+00
2.6574E+01	2.973245	2631.3	1.4398E+00
2.7082E+01	2.969266	2642.9	1.4490E+00
2.7593E+01	2.965286	2654.2	1.4582E+00
2.8107E+01	2.961307	2665.2	1.4673E+00
2.8625E+01	2.957328	2676.0	1.4763E+00
2.9147E+01	2.953348	2686.5	1.4854E+00
2.9672E+01	2.949369	2696.8	1.4946E+00
3.0200E+01	2.945390	2706.9	1.5038E+00
3.0732E+01	2.941410	2716.8	1.5128E+00
3.1267E+01	2.937431	2726.6	1.5219E+00
3.1805E+01	2.933452	2736.1	1.5309E+00
3.2347E+01	2.929472	2745.6	1.5398E+00
3.2893E+01	2.925493	2754.9	1.5487E+00
3.3441E+01	2.921514	2764.1	1.5575E+00
3.3993E+01	2.917535	2773.2	1.5663E+00
3.4549E+01	2.913555	2782.3	1.5750E+00
3.5107E+01	2.909576	2791.4	1.5837E+00
3.5669E+01	2.905597	2800.6	1.5924E+00
3.6234E+01	2.901617	2809.7	1.6010E+00
3.6802E+01	2.897638	2818.9	1.6096E+00
3.7374E+01	2.893659	2828.2	1.6181E+00
3.7949E+01	2.889679	2837.6	1.6266E+00
3.8527E+01	2.885700	2847.2	1.6351E+00
3.9108E+01	2.881721	2856.9	1.6435E+00
3.9692E+01	2.877741	2866.7	1.6519E+00
4.0279E+01	2.873762	2876.7	1.6603E+00
4.0870E+01	2.869783	2886.8	1.6686E+00
4.1463E+01	2.865804	2897.0	1.6770E+00
4.2060E+01	2.861824	2907.3	1.6852E+00
4.2660E+01	2.857845	2917.8	1.6935E+00
4.3263E+01	2.853866	2928.4	1.7017E+00
4.3869E+01	2.849886	2939.1	1.7099E+00
4.4478E+01	2.845907	2949.9	1.7180E+00
4.5090E+01	2.841928	2960.8	1.7261E+00
4.5705E+01	2.837948	2971.8	1.7342E+00
4.6323E+01	2.833969	2982.8	1.7422E+00
4.6944E+01	2.829990	2994.0	1.7502E+00
4.7568E+01	2.826010	3005.3	1.7582E+00
4.8195E+01	2.822031	3016.5	1.7661E+00
4.8824E+01	2.818052	3027.8	1.7740E+00
4.9457E+01	2.814072	3039.1	1.7818E+00
5.0093E+01	2.810093	3050.4	1.7896E+00
5.0731E+01	2.806114	3061.5	1.7974E+00
5.1372E+01	2.802135	3072.6	1.8052E+00
5.2017E+01	2.798155	3083.5	1.8129E+00
5.2664E+01	2.794176	3094.3	1.8206E+00
5.3313E+01	2.790197	3104.9	1.8283E+00
5.3966E+01	2.786217	3115.3	1.8359E+00
5.4621E+01	2.782238	3125.4	1.8435E+00
5.5279E+01	2.778259	3135.3	1.8511E+00
5.5940E+01	2.774279	3145.0	1.8586E+00
5.6604E+01	2.770300	3154.3	1.8661E+00
5.7270E+01	2.766321	3163.4	1.8735E+00
5.7939E+01	2.762341	3172.2	1.8809E+00
5.8611E+01	2.758362	3180.7	1.8883E+00
5.9285E+01	2.754383	3189.0	1.8956E+00
5.9963E+01	2.750404	3197.2	1.9029E+00
6.0642E+01	2.746424	3205.2	1.9102E+00
6.1324E+01	2.742445	3213.1	1.9175E+00
6.2009E+01	2.738466	3220.9	1.9248E+00
6.2697E+01	2.734486	3228.6	1.9320E+00
6.3387E+01	2.730507	3236.4	1.9392E+00
6.4080E+01	2.726528	3244.1	1.9463E+00
6.4775E+01	2.722548	3251.8	1.9535E+00
6.5472E+01	2.718569	3259.6	1.9606E+00
6.6173E+01	2.714590	3267.5	1.9677E+00
6.6876E+01	2.710610	3275.5	1.9747E+00
6.7581E+01	2.706631	3283.6	1.9818E+00
6.8289E+01	2.702652	3291.8	1.9888E+00
6.8999E+01	2.698672	3300.2	1.9957E+00
6.9711E+01	2.694693	3308.8	2.0026E+00
7.0427E+01	2.690714	3317.5	2.0095E+00
7.1144E+01	2.686735	3326.4	2.0164E+00
7.1864E+01	2.682755	3335.4	2.0233E+00
7.2586E+01	2.678776	3344.6	2.0301E+00
7.3311E+01	2.674797	3353.9	2.0369E+00
7.4038E+01	2.670817	3363.3	2.0437E+00
7.4767E+01	2.666838	3372.9	2.0504E+00
7.5499E+01	2.662859	3382.6	2.0572E+00
7.6233E+01	2.658879	3392.4	2.0639E+00
7.6970E+01	2.654900	3402.3	2.0706E+00
7.7708E+01	2.650921	3412.4	2.0772E+00
7.8449E+01	2.646941	3422.5	2.0839E+00
7.9193E+01	2.642962	3432.8	2.0905E+00
7.9938E+01	2.638983	3443.1	2.0971E+00
8.0686E+01	2.635004	3453.5	2.1036E+00
8.1436E+01	2.631024	3464.1	2.1100E+00
8.2188E+01	2.627045	3474.7	2.1165E+00
8.2942E+01	2.623066	3485.4	2.1229E+00
8.3699E+01	2.619086	3496.2	2.1293E+00
8.4457E+01	2.615107	3507.1	2.1357E+00
8.5218E+01	2.611128	3518.0	2.1421E+00
8.5981E+01	2.607148	3528.9	2.1484E+00
8.6746E+01	2.603169	3539.9	2.1547E+00
8.7513E+01	2.599190	3550.9	2.1610E+00
8.8282E+01	2.595210	3561.9	2.1673E+00
8.9054E+01	2.591231	3572.9	2.1736E+00
8.9827E+01	2.587252	3583.9	2.1798E+00
9.0602E+01	2.583272	3594.9	2.1861E+00
9.1380E+01	2.579293	3605.8	2.1923E+00
9.2160E+01	2.575314	3616.7	2.1985E+00
9.2941E+01	2.571335	3627.6	2.2046E+00
9.3725E+01	2.567355	3638.3	2.2108E+00
9.4510E+01	2.563376	3649.1	2.2169E+00
9.5298E+01	2.559397	3659.7	2.2230E+00
9.6087E+01	2.555417	3670.2	2.2291E+00
9.6879E+01	2.551438	3680.7	2.2351E+00
9.7672E+01	2.547459	3691.0	2.2412E+00
9.8467E+01	2.543479	3701.3	2.2472E+00
9.9265E+01	2.539500	3711.4	2.2532E+00
1.0006E+02	2.535521	3721.4	2.2592E+00
1.0086E+02	2.531541	3731.2	2.2652E+00
1.0167E+02	2.527562	3740.9	2.2712E+00
1.0247E+02	2.523583	3750.5	2.2771E+00
1.0328E+02	2.519604	3759.9	2.2830E+00
1.0409E+02	2.515624	3769.3	2.2889E+00
1.0490E+02	2.511645	3778.4	2.2948E+00
1.0571E+02	2.507666	3787.5	2.3006E+00
1.0652E+02	2.503686	3796.4	2.3065E+00
1.0734E+02	2.499707	3805.3	2.3123E+00
1.0816E+02	2.495728	3814.0	2.3181E+00
1.0898E+02	2.491748	3822.5	2.3238E+00
1.0980E+02	2.487769	3831.0	2.3297E+00
1.1062E+02	2.483790	3839.3	2.3356E+00
1.1145E+02	2.479810	3847.5	2.3415E+00
1.1227E+02	2.475831	3855.6	2.3473E+00
1.1310E+02	2.471852	3863.6	2.3532E+00
1.1393E+02	2.467872	3871.5	2.3590E+00
1.1476E+02	2.463893	3879.3	2.3648E+00
1.1560E+02	2.459914	3886.9	2.3706E+00
1.1643E+02	2.455935	3894.5	2.3764E+00
1.1727E+02	2.451955	3901.9	2.3821E+00
1.1811E+02	2.447976	3909.2	2.3879E+00
1.1895E+02	2.443997	3916.5	2.3936E+00
1.1979E+02	2.440017	3923.6	2.3993E+00
1.2064E+02	2.436038	3930.6	2.4051E+00
1.2148E+02	2.432059	3937.6	2.4107E+00
1.2233E+02	2.428079	3944.4	2.4164E+00
1.2318E+02	2.424100	3951.1	2.4221E+00
1.2403E+02	2.420121	3957.8	2.4277E+00
1.2488E+02	2.416141	3964.3	2.4333E+00
1.2573E+02	2.412162	3970.8	2.4389E+00
1.2659E+02	2.408183	3977.3	2.4445E+00
1.2745E+02	2.404204	3983.6	2.4500E+00
1.2830E+02	2.400224	3989.9	2.4556E+00
1.2916E+02	2.396245	3996.1	2.4611E+00
1.3003E+02	2.392266	4002.3	2.4666E+00
1.3089E+02	2.388286	4008.4	2.4721E+00
1.3175E+02	2.384307	4014.5	2.4776E+00
1.3262E+02	2.380328	4020.6	2.4831E+00
1.3349E+02	2.376348	4026.6	2.4886E+00
1.3436E+02	2.372369	4032.5	2.4940E+00
1.3523E+02	2.368390	4038.5	2.4994E+00
1.3610E+02	2.364410	4044.4	2.5049E+00
1.3697E+02	2.360431	4050.3	2.5103E+00
1.3785E+02	2.356452	4056.1	2.5157E+00
1.3872E+02	2.352472	4062.0	2.5210E+00
1.3960E+02	2.348493	4067.9	2.5264E+00
1.4048E+02	2.344514	4073.7	2.5318E+00
1.4136E+02	2.340535	4079.5	2.5371E+00
1.4224E+02	2.336555	4085.4	2.5424E+00
1.4313E+02	2.332576	4091.2	2.5477E+00
1.4401E+02	2.328597	4097.0	2.5530E+00
1.4490E+02	2.324617	4102.9	2.5583E+00
1.4579E+02	2.320638	4108.7	2.5636E+00
1.4668E+02	2.316659	4114.6	2.5688E+00
1.4757E+02	2.312679	4120.5	2.5741E+00
1.4846E+02	2.308700	4126.4	2.5793E+00
1.4935E+02	2.304721	4132.3	2.5845E+00
1.5025E+02	2.300741	4138.3	2.5897E+00
1.5114E+02	2.296762	4144.3	2.5948E+00
1.5204E+02	2.292783	4150.3	2.6000E+00
1.5294E+02	2.288804	4156.3	2.6051E+00
1.5384E+02	2.284824	4162.4	2.6102E+00
1.5474E+02	2.280845	4168.5	2.6153E+00
1.5564E+02	2.276866	4174.6	2.6204E+00
1.5654E+02	2.272886	4180.8	2.6254E+00
1.5745E+02	2.268907	4187.0	2.6305E+00
1.5835E+02	2.264928	4193.2	2.6355E+00
1.5926E+02	2.260948	4199.5	2.6406E+00
1.6017E+02	2.256969	4205.8	2.6456E+00
1.6108E+02	2.252990	4212.2	2.6506E+00
1.6199E+02	2.249010	4218.7	2.6556E+00
1.6290E+02	2.245031	4225.1	2.6606E+00
1.6381E+02	2.241052	4231.7	2.6655E+00
1.6472E+02	2.237072	4238.3	2.6705E+00
1.6564E+02	2.233093	4244.9	2.6754E+00
1.6655E+02	2.229114	4251.6	2.6804E+00
1.6747E+02	2.225135	4258.3	2.6853E+00
1.6839E+02	2.221155	4265.1	2.6902E+00
1.6931E+02	2.217176	4272.0	2.6951E+00
1.7023E+02	2.213197	4279.0	2.7000E+00
1.7115E+02	2.209217	4285.9	2.7048E+00
1.7207E+02	2.205238	4293.0	2.7097E+00
1.7300E+02	2.201259	4300.1	2.7145E+00
1.7392E+02	2.197279	4307.3	2.7194E+00
1.7485E+02	2.193300	4314.6	2.7242E+00
1.7577E+02	2.189321	4321.9	2.7290E+00
1.7670E+02	2.185341	4329.3	2.7338E+00
1.7763E+02	2.181362	4336.8	2.7386E+00
1.7856E+02	2.177383	4344.3	2.7434E+00
1.7949E+02	2.173404	4351.9	2.7482E+00
1.8042E+02	2.169424	4359.6	2.7530E+00
1.8135E+02	2.165445	4367.3	2.7578E+00
1.8229E+02	2.161466	4375.0	2.7625E+00
1.8322E+02	2.157486	4382.8	2.7673E+00
1.8416E+02	2.153507	4390.6	2.7720E+00
1.8509E+02	2.149528	4398.4	2.7767E+00
1.8603E+02	2.145548	4406.2	2.7814E+00
1.8697E+02	2.141569	4414.1	2.7861E+00
1.8791E+02	2.137590	4421.9	2.7908E+00
1.8885E+02	2.133610	4429.8	2.7955E+00
1.8979E+02	2.129631	4437.6	2.8001E+00
1.9073E+02	2.125652	4445.4	2.8048E+00
1.9168E+02	2.121672	4453.2	2.8094E+00
1.9262E+02	2.117693	4461.0	2.8141E+00
1.9356E+02	2.113714	4468.8	2.8187E+00
1.9451E+02	2.109735	4476.5	2.8233E+00
1.9545E+02	2.105755	4484.2	2.8279E+00
1.9640E+02	2.101776	4491.8	2.8325E+00
1.9735E+02	2.097797	4499.4	2.8371E+00
1.9830E+02	2.093817	4506.9	2.8416E+00
1.9925E+02	2.089838	4514.4	2.8462E+00
2.0020E+02	2.085859	4521.8	2.8507E+00
2.0115E+02	2.081879	4529.2	2.8553E+00
2.0210E+02	2.077900	4536.4	2.8598E+00
2.0305E+02	2.073921	4543.6	2.8643E+00
2.0401E+02	2.069941	4550.8	2.8687E+00
2.0496E+02	2.065962	4557.8	2.8732E+00
2.0592E+02	2.061983	4564.7	2.8776E+00
2.0687E+02	2.058004	4571.6	2.8820E+00
2.0783E+02	2.054024	4578.3	2.8864E+00
2.0878E+02	2.050045	4585.0	2.8908E+00
2.0974E+02	2.046066	4591.5	2.8952E+00
2.1070E+02	2.042086	4597.9	2.8996E+00
2.1166E+02	2.038107	4604.3	2.9040E+00
2.1262E+02	2.034128	4610.5	2.9083E+00
2.1358E+02	2.030148	4616.6	2.9127E+00
2.1454E+02	2.026169	4622.5	2.9171E+00
2.1550E+02	2.022190	4628.4	2.9216E+00
2.1646E+02	2.018210	4634.1	2.9261E+00
2.1743E+02	2.014231	4639.7	2.9306E+00
2.1839E+02	2.010252	4645.2	2.9351E+00
2.1936E+02	2.006272	4650.7	2.9395E+00
2.2032E+02	2.002293	4656.0	2.9440E+00
2.2129E+02	1.998314	4661.2	2.9484E+00
2.2225E+02	1.994335	4666.3	2.9529E+00
2.2322E+02	1.990355	4671.4	2.9573E+00
2.2419E+02	1.986376	4676.4	2.9617E+00
2.2516E+02	1.982397	4681.3	2.9661E+00
2.2612E+02	1.978417	4686.1	2.9705E+00
2.2709E+02	1.974438	4690.9	2.9749E+00
2.2806E+02	1.970459	4695.6	2.9793E+00
2.2903E+02	1.966479	4700.2	2.9836E+00
2.3001E+02	1.962500	4704.8	2.9880E+00
2.3098E+02	1.958521	4709.3	2.9923E+00
2.3195E+02	1.954541	4713.8	2.9967E+00
2.3292E+02	1.950562	4718.3	3.0010E+00
2.3390E+02	1.946583	4722.7	3.0053E+00
2.3487E+02	1.942604	4727.1	3.0096E+00
2.3584E+02	1.938624	4731.4	3.0139E+00
2.3682E+02	1.934645	4735.7	3.0182E+00
2.3779E+02	1.930666	4740.0	3.0225E+00
2.3877E+02	1.926686	4744.2	3.0268E+00
2.3975E+02	1.922707	4748.5	3.0310E+00
2.4072E+02	1.918728	4752.7	3.0353E+00
2.4170E+02	1.914748	4756.9	3.0395E+00
2.4268E+02	1.910769	4761.1	3.0438E+00
2.4366E+02	1.906790	4765.3	3.0480E+00
2.4464E+02	1.902810	4769.5	3.0522E+00
2.4562E+02	1.898831	4773.7	3.0564E+00
2.4660E+02	1.894852	4777.9	3.0606E+00
2.4758E+02	1.890872	4782.1	3.0648E+00
2.4856E+02	1.886893	4786.3	3.0689E+00
2.4954E+02	1.882914	4790.5	3.0731E+00
2.5052E+02	1.878935	4794.7	3.0773E+00
2.5150E+02	1.874955	4799.0	3.0814E+00
2.5248E+02	1.870976	4803.2	3.0856E+00
2.5347E+02	1.866997	4807.5	3.0897E+00
2.5445E+02	1.863017	4811.8	3.0938E+00
2.5543E+02	1.859038	4816.1	3.0979E+00
2.5642E+02	1.855059	4820.5	3.1020E+00
2.5740E+02	1.851079	4824.9	3.1061E+00
2.5839E+02	1.847100	4829.3	3.1102E+00
2.5937E+02	1.843121	4833.7	3.1143E+00
2.6036E+02	1.839141	4838.2	3.1184E+00
2.6134E+02	1.835162	4842.8	3.1224E+00
2.6233E+02	1.831183	4847.3	3.1265E+00
2.6331E+02	1.827204	4851.9	3.1305E+00
2.6430E+02	1.823224	4856.5	3.1346E+00
2.6529E+02	1.819245	4861.2	3.1386E+00
2.6627E+02	1.815266	4865.9	3.1426E+00
2.6726E+02	1.811286	4870.6	3.1466E+00
2.6825E+02	1.807307	4875.4	3.1506E+00
2.6924E+02	1.803328	4880.2	3.1546E+00
2.7022E+02	1.799348	4885.0	3.1586E+00
2.7121E+02	1.795369	4889.8	3.1626E+00
2.7220E+02	1.791390	4894.7	3.1665E+00
2.7319E+02	1.787410	4899.7	3.1705E+00
2.7418E+02	1.783431	4904.6	3.1744E+00
2.7517E+02	1.779452	4909.6	3.1784E+00
2.7616E+02	1.775472	4914.6	3.1823E+00
2.7715E+02	1.771493	4919.7	3.1862E+00
2.7814E+02	1.767514	4924.8	3.1902E+00
2.7913E+02	1.763535	4929.9	3.1941E+00
2.8012E+02	1.759555	4935.0	3.1980E+00
2.8111E+02	1.755576	4940.2	3.2019E+00
2.8210E+02	1.751597	4945.4	3.2057E+00
2.8309E+02	1.747617	4950.7	3.2096E+00
2.8409E+02	1.743638	4955.9	3.2135E+00
2.8508E+02	1.739659	4961.2	3.2173E+00
2.8607E+02	1.735679	4966.6	3.2212E+00
2.8706E+02	1.731700	4971.9	3.2250E+00
2.8805E+02	1.727721	4977.3	3.2289E+00
2.8905E+02	1.723741	4982.8	3.2327E+00
2.9004E+02	1.719762	4988.2	3.2365E+00
2.9103E+02	1.715783	4993.7	3.2403E+00
2.9202E+02	1.711804	4999.2	3.2441E+00
2.9302E+02	1.707824	5004.8	3.2479E+00
2.9401E+02	1.703845	5010.3	3.2517E+00
2.9500E+02	1.699866	5015.9	3.2555E+00
2.9600E+02	1.695886	5021.6	3.2592E+00
2.9699E+02	1.691907	5027.2	3.2630E+00
2.9798E+02	1.687928	5032.9	3.2667E+00
2.9898E+02	1.683948	5038.6	3.2705E+00
2.9997E+02	1.679969	5044.4	3.2742E+00
3.0096E+02	1.675990	5050.2	3.2779E+00
3.0196E+02	1.672010	5056.0	3.2817E+00
3.0295E+02	1.668031	5061.8	3.2854E+00
3.0394E+02	1.664052	5067.6	3.2891E+00
3.0494E+02	1.660072	5073.5	3.2928E+00
3.0593E+02	1.656093	5079.5	3.2965E+00
3.0693E+02	1.652114	5085.4	3.3002E+00
3.0792E+02	1.648135	5091.4	3.3038E+00
3.0891E+02	1.644155	5097.4	3.3075E+00
3.0991E+02	1.640176	5103.4	3.3112E+00
3.1090E+02	1.636197	5109.4	3.3148E+00
3.1190E+02	1.632217	5115.5	3.3185E+00
3.1289E+02	1.628238	5121.6	3.3221E+00
3.1389E+02	1.624259	5127.7	3.3257E+00
3.1488E+02	1.620279	5133.9	3.3293E+00
3.1588E+02	1.616300	5140.1	3.3330E+00
3.1687E+02	1.612321	5146.3	3.3366E+00
3.1786E+02	1.608341	5152.5	3.3402E+00
3.1886E+02	1.604362	5158.7	3.3438E+00
3.1985E+02	1.600383	5165.0	3.3473E+00
3.2085E+02	1.596404	5171.3	3.3509E+00
3.2184E+02	1.592424	5177.6	3.3545E+00
3.2284E+02	1.588445	5183.9	3.3581E+00
3.2383E+02	1.584466	5190.2	3.3616E+00
3.2483E+02	1.580486	5196.5	3.3652E+00
3.2582E+02	1.576507	5202.8	3.3687E+00
3.2681E+02	1.572528	5209.2	3.3723E+00
3.2781E+02	1.568548	5215.5	3.3758E+00
3.2880E+02	1.564569	5221.9	3.3793E+00
3.2980E+02	1.560590	5228.3	3.3829E+00
3.3079E+02	1.556610	5234.6	3.3864E+00
3.3179E+02	1.552631	5241.0	3.3899E+00
3.3278E+02	1.548652	5247.4	3.3934E+00
3.3377E+02	1.544672	5253.7	3.3969E+00
3.3477E+02	1.540693	5260.1	3.4004E+00
3.3576E+02	1.536714	5266.5	3.4039E+00
3.3676E+02	1.532735	5272.8	3.4074E+00
3.3775E+02	1.528755	5279.2	3.4109E+00
3.3874E+02	1.524776	5285.6	3.4143E+00
3.3974E+02	1.520797	5291.9	3.4178E+00
3.4073E+02	1.516817	5298.2	3.4213E+00
3.4173E+02	1.512838	5304.6	3.4247E+00
3.4272E+02	1.508859	5310.9	3.4281E+00
3.4371E+02	1.504879	5317.2	3.4316E+00
3.4471E+02	1.500900	5323.5	3.4350E+00
3.4570E+02	1.496921	5329.8	3.4384E+00
3.4669E+02	1.492941	5336.1	3.4418E+00
3.4769E+02	1.488962	5342.3	3.4453E+00
3.4868E+02	1.484983	5348.6	3.4487E+00
3.4967E+02	1.481004	5354.8	3.4521E+00
3.5067E+02	1.477024	5361.0	3.4554E+00
3.5166E+02	1.473045	5367.2	3.4588E+00
3.5265E+02	1.469066	5373.4	3.4622E+00
3.5365E+02	1.465086	5379.6	3.4656E+00
3.5464E+02	1.461107	5385.7	3.4689E+00
3.5563E+02	1.457128	5391.8	3.4723E+00
3.5662E+02	1.453148	5397.9	3.4756E+00
3.5762E+02	1.449169	5404.0	3.4790E+00
3.5861E+02	1.445190	5410.0	3.4823E+00
3.5960E+02	1.441210	5416.1	3.4856E+00
3.6059E+02	1.437231	5422.0	3.4890E+00
3.6159E+02	1.433252	5428.0	3.4923E+00
3.6258E+02	1.429272	5434.0	3.4956E+00
3.6357E+02	1.425293	5439.9	3.4989E+00
3.6456E+02	1.421314	5445.8	3.5022E+00
3.6555E+02	1.417335	5451.6	3.5055E+00
3.6654E+02	1.413355	5457.5	3.5088E+00
3.6754E+02	1.409376	5463.2	3.5121E+00
3.6853E+02	1.405397	5469.0	3.5154E+00
3.6952E+02	1.401417	5474.8	3.5187E+00
3.7051E+02	1.397438	5480.5	3.5220E+00
3.7150E+02	1.393459	5486.1	3.5253E+00
3.7249E+02	1.389479	5491.8	3.5286E+00
3.7348E+02	1.385500	5497.4	3.5318E+00
3.7447E+02	1.381521	5502.9	3.5351E+00
3.7546E+02	1.377541	5508.5	3.5383E+00
3.7646E+02	1.373562	5513.9	3.5416E+00
3.7745E+02	1.369583	5519.4	3.5448E+00
3.7844E+02	1.365604	5524.8	3.5481E+00
3.7943E+02	1.361624	5530.2	3.5513E+00
3.8042E+02	1.357645	5535.5	3.5545E+00
3.8141E+02	1.353666	5540.8	3.5577E+00
3.8240E+02	1.349686	5546.1	3.5610E+00
3.8339E+02	1.345707	5551.3	3.5642E+00
3.8438E+02	1.341728	5556.5	3.5674E+00
3.8537E+02	1.337748	5561.7	3.5706E+00
3.8636E+02	1.333769	5566.8	3.5738E+00
3.8735E+02	1.329790	5571.9	3.5770E+00
3.8834E+02	1.325810	5577.0	3.5801E+00
3.8933E+02	1.321831	5582.0	3.5833E+00
3.9032E+02	1.317852	5587.0	3.5865E+00
3.9131E+02	1.313872	5591.9	3.5897E+00
3.9230E+02	1.309893	5596.8	3.5928E+00
3.9329E+02	1.305914	5601.7	3.5960E+00
3.9428E+02	1.301935	5606.5	3.5991E+00
3.9527E+02	1.297955	5611.3	3.6023E+00
3.9626E+02	1.293976	5616.1	3.6054E+00
3.9725E+02	1.289997	5620.8	3.6085E+00
3.9824E+02	1.286017	5625.6	3.6117E+00
3.9922E+02	1.282038	5630.2	3.6148E+00
4.0021E+02	1.278059	5634.9	3.6179E+00
4.0120E+02	1.274079	5639.5	3.6210E+00
4.0219E+02	1.270100	5644.0	3.6241E+00
4.0318E+02	1.266121	5648.6	3.6272E+00
4.0417E+02	1.262141	5653.1	3.6303E+00
4.0516E+02	1.258162	5657.6	3.6334E+00
4.0615E+02	1.254183	5662.0	3.6366E+00
4.0714E+02	1.250204	5666.4	3.6397E+00
4.0813E+02	1.246224	5670.8	3.6428E+00
4.0912E+02	1.242245	5675.2	3.6459E+00
4.1011E+02	1.238266	5679.5	3.6490E+00
4.1110E+02	1.234286	5683.8	3.6521E+00
4.1209E+02	1.230307	5688.0	3.6554E+00
4.1308E+02	1.226328	5692.3	3.6586E+00
4.1407E+02	1.222348	5696.5	3.6618E+00
4.1506E+02	1.218369	5700.6	3.6650E+00
4.1605E+02	1.214390	5704.8	3.6683E+00
4.1704E+02	1.210410	5708.9	3.6715E+00
4.1803E+02	1.206431	5712.9	3.6747E+00
4.1902E+02	1.202452	5717.0	3.6779E+00
4.2001E+02	1.198472	5721.0	3.6811E+00
4.2100E+02	1.194493	5725.0	3.6843E+00
4.2199E+02	1.190514	5729.0	3.6875E+00
4.2298E+02	1.186535	5732.9	3.6907E+00
4.2397E+02	1.182555	5736.8	3.6938E+00
4.2497E+02	1.178576	5740.7	3.6970E+00
4.2596E+02	1.174597	5744.5	3.7002E+00
4.2695E+02	1.170617	5748.4	3.7034E+00
4.2794E+02	1.166638	5752.2	3.7065E+00
4.2894E+02	1.162659	5755.9	3.7097E+00
4.2993E+02	1.158679	5759.7	3.7129E+00
4.3092E+02	1.154700	5763.4	3.7160E+00
4.3191E+02	1.150721	5767.1	3.7192E+00
4.3291E+02	1.146741	5770.7	3.7223E+00
4.3390E+02	1.142762	5774.4	3.7255E+00
4.3490E+02	1.138783	5778.0	3.7286E+00
4.3589E+02	1.134804	5781.6	3.7317E+00
4.3689E+02	1.130824	5785.1	3.7349E+00
4.3788E+02	1.126845	5788.7	3.7380E+00
4.3888E+02	1.122866	5792.2	3.7411E+00
4.3987E+02	1.118886	5795.6	3.7443E+00
4.4087E+02	1.114907	5799.1	3.7474E+00
4.4187E+02	1.110928	5802.5	3.7505E+00
4.4286E+02	1.106948	5805.9	3.7536E+00
4.4386E+02	1.102969	5809.3	3.7567E+00
4.4486E+02	1.098990	5812.7	3.7598E+00
4.4586E+02	1.095010	5816.0	3.7629E+00
4.4686E+02	1.091031	5819.3	3.7661E+00
4.4786E+02	1.087052	5822.6	3.7692E+00
4.4886E+02	1.083072	5825.9	3.7722E+00
4.4986E+02	1.079093	5829.1	3.7753E+00
4.5086E+02	1.075114	5832.3	3.7784E+00
4.5186E+02	1.071135	5835.5	3.7815E+00
4.5286E+02	1.067155	5838.7	3.7846E+00
4.5387E+02	1.063176	5841.8	3.7877E+00
4.5487E+02	1.059197	5844.9	3.7908E+00
4.5587E+02	1.055217	5848.0	3.7939E+00
4.5688E+02	1.051238	5851.1	3.7969E+00
4.5788E+02	1.047259	5854.1	3.8000E+00
4.5889E+02	1.043279	5857.2	3.8031E+00
4.5990E+02	1.039300	5860.2	3.8062E+00
4.6090E+02	1.035321	5863.2	3.8092E+00
4.6191E+02	1.031341	5866.1	3.8123E+00
4.6292E+02	1.027362	5869.1	3.8154E+00
4.6393E+02	1.023383	5872.0	3.8184E+00
4.6494E+02	1.019404	5874.9	3.8215E+00
4.6596E+02	1.015424	5877.8	3.8245E+00
4.6697E+02	1.011445	5880.7	3.8276E+00
4.6798E+02	1.007466	5883.5	3.8307E+00
4.6900E+02	1.003486	5886.4	3.8337E+00
4.7001E+02	0.999507	5889.2	3.8368E+00
4.7103E+02	0.995528	5892.0	3.8398E+00
4.7205E+02	0.991548	5894.8	3.8429E+00
4.7306E+02	0.987569	5897.5	3.8459E+00
4.7408E+02	0.983590	5900.3	3.8490E+00
4.7511E+02	0.979610	5903.0	3.8520E+00
4.7613E+02	0.975631	5905.8	3.8551E+00
4.7715E+02	0.971652	5908.5	3.8581E+00
4.7817E+02	0.967672	5911.2	3.8612E+00
4.7920E+02	0.963693	5913.8	3.8642E+00
4.8023E+02	0.959714	5916.5	3.8673E+00
4.8125E+02	0.955735	5919.2	3.8703E+00
4.8228E+02	0.951755	5921.8	3.8734E+00
4.8332E+02	0.947776	5924.5	3.8764E+00
4.8435E+02	0.943797	5927.1	3.8795E+00
4.8538E+02	0.939817	5929.7	3.8825E+00
4.8642E+02	0.935838	5932.3	3.8856E+00
4.8745E+02	0.931859	5934.9	3.8886E+00
4.8849E+02	0.927879	5937.5	3.8917E+00
4.8953E+02	0.923900	5940.1	3.8947E+00
4.9057E+02	0.919921	5942.6	3.8978E+00
4.9161E+02	0.915941	5945.2	3.9008E+00
4.9266E+02	0.911962	5947.7	3.9039E+00
4.9371E+02	0.907983	5950.3	3.9069E+00
4.9475E+02	0.904004	5952.8	3.9100E+00
4.9580E+02	0.900024	5955.3	3.9130E+00
4.9686E+02	0.896045	5957.9	3.9161E+00
4.9791E+02	0.892066	5960.4	3.9191E+00
4.9897E+02	0.888086	5962.9	3.9222E+00
5.0003E+02	0.884107	5965.4	3.9253E+00
5.0109E+02	0.880128	5967.9	3.9283E+00
5.0215E+02	0.876148	5970.4	3.9314E+00
5.0321E+02	0.872169	5972.9	3.9344E+00
5.0428E+02	0.868190	5975.4	3.9374E+00
5.0535E+02	0.864210	5977.9	3.9405E+00
5.0642E+02	0.860231	5980.3	3.9435E+00
5.0749E+02	0.856252	5982.8	3.9466E+00
5.0857E+02	0.852272	5985.3	3.9496E+00
5.0965E+02	0.848293	5987.8	3.9527E+00
5.1073E+02	0.844314	5990.3	3.9557E+00
5.1181E+02	0.840335	5992.7	3.9588E+00
5.1290E+02	0.836355	5995.2	3.9618E+00
5.1399E+02	0.832376	5997.7	3.9649E+00
5.1508E+02	0.828397	6000.2	3.9680E+00
5.1618E+02	0.824417	6002.7	3.9710E+00
5.1727E+02	0.820438	6005.2	3.9741E+00
5.1837E+02	0.816459	6007.6	3.9772E+00
5.1948E+02	0.812479	6010.1	3.9803E+00
5.2059E+02	0.808500	6012.6	3.9834E+00
5.2170E+02	0.804521	6015.1	3.9865E+00
5.2281E+02	0.800541	6017.6	3.9896E+00
5.2393E+02	0.796562	6020.1	3.9927E+00
5.2505E+02	0.792583	6022.6	3.9958E+00
5.2617E+02	0.788604	6025.1	3.9989E+00
5.2730E+02	0.784624	6027.7	4.0020E+00
5.2843E+02	0.780645	6030.2	4.0051E+00
5.2957E+02	0.776666	6032.7	4.0083E+00
5.3071E+02	0.772686	6035.3	4.0114E+00
5.3185E+02	0.768707	6037.8	4.0145E+00
5.3300E+02	0.764728	6040.4	4.0177E+00
5.3415E+02	0.760748	6042.9	4.0209E+00
5.3531E+02	0.756769	6045.5	4.0240E+00
5.3647E+02	0.752790	6048.1	4.0272E+00
5.3763E+02	0.748810	6050.7	4.0304E+00
5.3880E+02	0.744831	6053.3	4.0336E+00
5.3998E+02	0.740852	6055.9	4.0368E+00
5.4116E+02	0.736872	6058.6	4.0400E+00
5.4234E+02	0.732893	6061.2	4.0432E+00
5.4353E+02	0.728914	6063.9	4.0464E+00
5.4472E+02	0.724935	6066.6	4.0497E+00
5.4592E+02	0.720955	6069.3	4.0529E+00
5.4713E+02	0.716976	6072.0	4.0562E+00
5.4834E+02	0.712997	6074.7	4.0594E+00
5.4956E+02	0.709017	6077.4	4.0627E+00
5.5078E+02	0.705038	6080.2	4.0660E+00
5.5098E+02	0.704375	6080.6	4.0666E+00
5.5119E+02	0.703712	6081.1	4.0671E+00
5.5139E+02	0.703048	6081.6	4.0677E+00
5.5160E+02	0.702385	6082.0	4.0682E+00
5.5180E+02	0.701722	6082.5	4.0688E+00
5.5201E+02	0.701059	6083.0	4.0693E+00
5.5221E+02	0.700395	6083.4	4.0699E+00
5.5226E+02	0.700230	6083.5	4.0700E+00
5.5234E+02	0.700034	6083.6	9.0790E+00
5.5235E+02	0.700026	6083.6	9.0790E+00
5.5236E+02	0.700016	6083.6	9.0791E+00
5.5236E+02	0.700006	6083.6	9.0791E+00
5.5237E+02	0.699997	6083.6	9.0792E+00
5.5238E+02	0.699987	6083.6	9.0792E+00
5.5238E+02	0.699977	6083.6	9.0792E+00
5.5239E+02	0.699968	6083.6	9.0793E+00
5.5240E+02	0.699958	6083.6	9.0793E+00
5.5240E+02	0.699948	6083.6	9.0793E+00
5.5241E+02	0.699939	6083.6	9.0794E+00
5.5242E+02	0.699929	6083.6	9.0794E+00
5.5242E+02	0.699919	6083.6	9.0794E+00
5.5243E+02	0.699910	6083.6	9.0795E+00
5.5244E+02	0.699900	6083.6	9.0795E+00
5.5244E+02	0.699890	6083.6	9.0795E+00
5.5245E+02	0.699881	6083.6	9.0796E+00
5.5246E+02	0.699871	6083.6	9.0796E+00
5.5246E+02	0.699861	6083.6	9.0796E+00
5.5247E+02	0.699852	6083.6	9.0797E+00
5.5248E+02	0.699842	6083.6	9.0797E+00
5.5248E+02	0.699832	6083.6	9.0797E+00
5.5249E+02	0.699823	6083.6	9.0798E+00
5.5250E+02	0.699813	6083.6	9.0798E+00
5.5250E+02	0.699803	6083.6	9.0799E+00
5.5251E+02	0.699794	6083.6	9.0799E+00
5.5252E+02	0.699784	6083.6	9.0799E+00
5.5252E+02	0.699774	6083.6	9.0800E+00
5.5253E+02	0.699765	6083.6	9.0800E+00
5.5254E+02	0.699755	6083.6	9.0800E+00
5.5254E+02	0.699745	6083.6	9.0801E+00
5.5261E+02	0.699649	6083.6	9.0804E+00
5.5268E+02	0.699552	6083.6	9.0808E+00
5.5274E+02	0.699455	6083.6	9.0811E+00
5.5281E+02	0.699359	6083.6	9.0815E+00
5.5288E+02	0.699262	6083.6	9.0818E+00
5.5294E+02	0.699166	6083.6	9.0822E+00
5.5301E+02	0.699069	6083.6	9.0825E+00
5.5308E+02	0.698972	6083.6	9.0829E+00
5.5314E+02	0.698876	6083.6	9.0832E+00
5.5321E+02	0.698779	6083.6	9.0836E+00
5.5328E+02	0.698683	6083.6	9.0839E+00
5.5334E+02	0.698586	6083.6	9.0843E+00
5.5341E+02	0.698490	6083.6	9.0846E+00
5.5348E+02	0.698393	6083.6	9.0849E+00
5.5354E+02	0.698297	6083.6	9.0853E+00
5.5361E+02	0.698200	6083.6	9.0856E+00
5.5368E+02	0.698104	6083.6	9.0860E+00
5.5374E+02	0.698007	6083.6	9.0863E+00
5.5381E+02	0.697911	6083.6	9.0867E+00
5.5388E+02	0.697815	6083.6	9.0870E+00
5.5394E+02	0.697718	6083.6	9.0874E+00
5.5401E+02	0.697622	6083.6	9.0877E+00
5.5408E+02	0.697525	6083.6	9.0881E+00
5.5414E+02	0.697429	6083.6	9.0884E+00
5.5421E+02	0.697333	6083.6	9.0888E+00
5.5447E+02	0.696947	6083.6	9.0902E+00
5.5514E+02	0.695985	6083.6	9.0936E+00
5.5580E+02	0.695024	6083.6	9.0971E+00
5.5646E+02	0.694065	6083.6	9.1005E+00
5.5712E+02	0.693107	6083.6	9.1039E+00
5.5777E+02	0.692150	6083.6	9.1074E+00
5.5843E+02	0.691194	6083.6	9.1108E+00
5.5908E+02	0.690240	6083.6	9.1142E+00
5.5974E+02	0.689287	6083.6	9.1176E+00
5.6039E+02	0.688335	6083.6	9.1209E+00
5.6104E+02	0.687385	6083.6	9.1243E+00
5.6169E+02	0.686436	6083.6	9.1277E+00
5.6233E+02	0.685488	6083.6	9.1310E+00
5.6298E+02	0.684542	6083.6	9.1344E+00
5.6363E+02	0.683597	6083.6	9.1377E+00
5.6427E+02	0.682653	6083.6	9.1410E+00
5.6491E+02	0.681711	6083.6	9.1443E+00
5.6555E+02	0.680769	6083.6	9.1476E+00
5.6619E+02	0.679829	6083.6	9.1509E+00
5.6683E+02	0.678891	6083.6	9.1542E+00
5.6746E+02	0.677954	6083.6	9.1575E+00
5.6810E+02	0.677018	6083.6	9.1607E+00
5.6873E+02	0.676083	6083.6	9.1640E+00
5.6936E+02	0.675150	6083.6	9.1672E+00
5.6999E+02	0.674217	6083.6	9.1705E+00
5.7062E+02	0.673287	6083.6	9.1737E+00
5.7498E+02	0.666807	6083.6	9.1961E+00
5.8110E+02	0.657658	6083.6	9.2274E+00
5.8708E+02	0.648634	6083.6	9.2577E+00
5.9293E+02	0.639735	6083.6	9.2872E+00
5.9865E+02	0.630957	6083.6	9.3157E+00
6.0424E+02	0.622300	6083.6	9.3435E+00
6.0970E+02	0.613762	6083.6	9.3705E+00
6.1504E+02	0.605341	6083.6	9.3968E+00
6.2025E+02	0.597035	6083.6	9.4224E+00
6.2534E+02	0.588844	6083.6	9.4473E+00
6.3032E+02	0.580764	6083.6	9.4714E+00
6.3517E+02	0.572796	6083.6	9.4949E+00
6.3992E+02	0.564937	6083.6	9.5177E+00
6.4455E+02	0.557186	6083.6	9.5398E+00
6.4907E+02	0.549541	6083.6	9.5613E+00
6.5348E+02	0.542001	6083.6	9.5823E+00
6.5779E+02	0.534564	6083.6	9.6027E+00
6.6200E+02	0.527230	6083.6	9.6226E+00
6.6610E+02	0.519996	6083.6	9.6419E+00
6.7011E+02	0.512861	6083.6	9.6606E+00
6.7401E+02	0.505825	6083.6	9.6788E+00
6.7782E+02	0.498884	6083.6	9.6965E+00
6.8154E+02	0.492040	6083.6	9.7137E+00
6.8517E+02	0.485289	6083.6	9.7304E+00
6.8871E+02	0.478630	6083.6	9.7467E+00
6.9216E+02	0.472063	6083.6	9.7625E+00
6.9552E+02	0.465586	6083.6	9.7779E+00
6.9880E+02	0.459198	6083.6	9.7930E+00
7.0200E+02	0.452898	6083.6	9.8076E+00
7.0512E+02	0.446684	6083.6	9.8218E+00
7.0816E+02	0.440555	6083.6	9.8356E+00
7.1113E+02	0.434510	6083.6	9.8490E+00
7.1402E+02	0.428549	6083.6	9.8621E+00
7.1683E+02	0.422669	6083.6	9.8748E+00
7.1958E+02	0.416869	6083.6	9.8871E+00
7.2226E+02	0.411150	6083.6	9.8991E+00
7.2486E+02	0.405509	6083.6	9.9108E+00
7.2741E+02	0.399945	6083.6	9.9221E+00
7.2988E+02	0.394457	6083.6	9.9332E+00
7.3230E+02	0.389045	6083.6	9.9439E+00
7.3465E+02	0.383707	6083.6	9.9543E+00
7.3694E+02	0.378443	6083.6	9.9644E+00
7.3917E+02	0.373250	6083.6	9.9743E+00
7.4135E+02	0.368129	6083.6	9.9840E+00
7.4347E+02	0.363078	6083.6	9.9933E+00
7.4553E+02	0.358096	6083.6	1.0002E+01
7.4755E+02	0.353183	6083.6	1.0011E+01
7.4950E+02	0.348337	6083.6	1.0020E+01
7.5141E+02	0.343558	6083.6	1.0028E+01
7.5327E+02	0.338844	6083.6	1.0036E+01
7.5508E+02	0.334195	6083.6	1.0044E+01
7.5685E+02	0.329610	6083.6	1.0052E+01
7.5856E+02	0.325087	6083.6	1.0060E+01
7.6023E+02	0.320627	6083.6	1.0067E+01
7.6186E+02	0.316228	6083.6	1.0074E+01
7.6345E+02	0.311889	6083.6	1.0081E+01
7.6499E+02	0.307610	6083.6	1.0087E+01
7.6650E+02	0.303389	6083.6	1.0094E+01
7.6796E+02	0.299226	6083.6	1.0100E+01
7.6939E+02	0.295121	6083.6	1.0106E+01
7.7078E+02	0.291072	6083.6	1.0112E+01
7.7213E+02	0.287078	6083.6	1.0118E+01
7.7344E+02	0.283139	6083.6	1.0124E+01
7.7473E+02	0.279254	6083.6	1.0129E+01
7.7597E+02	0.275423	6083.6	1.0135E+01
7.7719E+02	0.271644	6083.6	1.0140E+01
7.7837E+02	0.267917	6083.6	1.0145E+01
7.7952E+02	0.264241	6083.6	1.0150E+01
7.8064E+02	0.260615	6083.6	1.0155E+01
7.8173E+02	0.257040	6083.6	1.0159E+01
7.8280E+02	0.253513	6083.6	1.0164E+01
7.8383E+02	0.250035	6083.6	1.0168E+01
7.8484E+02	0.246604	6083.6	1.0173E+01
7.8582E+02	0.243220	6083.6	1.0177E+01
7.8677E+02	0.239883	6083.6	1.0181E+01
7.8770E+02	0.236592	6083.6	1.0185E+01
7.8860E+02	0.233346	6083.6	1.0189E+01
7.8948E+02	0.230144	6083.6	1.0193E+01
7.9033E+02	0.226986	6083.6	1.0196E+01
7.9117E+02	0.223872	6083.6	1.0200E+01
7.9198E+02	0.220800	6083.6	1.0203E+01
7.9277E+02	0.217771	6083.6	1.0207E+01
7.9354E+02	0.214783	6083.6	1.0210E+01
7.9428E+02	0.211836	6083.6	1.0213E+01
7.9501E+02	0.208930	6083.6	1.0216E+01
7.9572E+02	0.206063	6083.6	1.0219E+01
7.9641E+02	0.203236	6083.6	1.0222E+01
7.9708E+02	0.200447	6083.6	1.0225E+01
7.9773E+02	0.197697	6083.6	1.0228E+01
7.9836E+02	0.194984	6083.6	1.0230E+01
7.9898E+02	0.192309	6083.6	1.0233E+01
7.9958E+02	0.189671	6083.6	1.0236E+01
8.0017E+02	0.187068	6083.6	1.0238E+01
8.0074E+02	0.184502	6083.6	1.0240E+01
8.0129E+02	0.181970	6083.6	1.0243E+01
8.0183E+02	0.179473	6083.6	1.0245E+01
8.0235E+02	0.177011	6083.6	1.0247E+01
8.0287E+02	0.174582	6083.6	1.0249E+01
8.0336E+02	0.172187	6083.6	1.0251E+01
8.0385E+02	0.169824	6083.6	1.0254E+01
8.0432E+02	0.167494	6083.6	1.0255E+01
8.0477E+02	0.165196	6083.6	1.0257E+01
8.0522E+02	0.162930	6083.6	1.0259E+01
8.0565E+02	0.160694	6083.6	1.0261E+01
8.0607E+02	0.158489	6083.6	1.0263E+01
8.0648E+02	0.156315	6083.6	1.0265E+01
8.0688E+02	0.154170	6083.6	1.0266E+01
8.0727E+02	0.152055	6083.6	1.0268E+01
8.0765E+02	0.149968	6083.6	1.0270E+01
8.0802E+02	0.147911	6083.6	1.0271E+01
8.0837E+02	0.145881	6083.6	1.0273E+01
8.0872E+02	0.143880	6083.6	1.0274E+01
8.0906E+02	0.141906	6083.6	1.0275E+01
8.0939E+02	0.139959	6083.6	1.0277E+01
8.0971E+02	0.138038	6083.6	1.0278E+01
8.1002E+02	0.136144	6083.6	1.0279E+01
8.1033E+02	0.134276	6083.6	1.0281E+01
8.1062E+02	0.132434	6083.6	1.0282E+01
8.1091E+02	0.130617	6083.6	1.0283E+01
8.1119E+02	0.128825	6083.6	1.0284E+01
8.1146E+02	0.127057	6083.6	1.0286E+01
8.1173E+02	0.125314	6083.6	1.0287E+01
8.1198E+02	0.123595	6083.6	1.0288E+01
8.1223E+02	0.121899	6083.6	1.0289E+01
8.1248E+02	0.120226	6083.6	1.0290E+01
8.1271E+02	0.118577	6083.6	1.0291E+01
8.1294E+02	0.116950	6083.6	1.0292E+01
8.1317E+02	0.115345	6083.6	1.0293E+01
8.1339E+02	0.113763	6083.6	1.0294E+01
8.1360E+02	0.112202	6083.6	1.0294E+01
8.1381E+02	0.110662	6083.6	1.0295E+01
8.1401E+02	0.109144	6083.6	1.0296E+01
8.1420E+02	0.107647	6083.6	1.0297E+01
8.1439E+02	0.106170	6083.6	1.0298E+01
8.1458E+02	0.104713	6083.6	1.0299E+01
8.1476E+02	0.103276	6083.6	1.0299E+01
8.1493E+02	0.101859	6083.6	1.0300E+01
8.1510E+02	0.100462	6083.6	1.0301E+01
8.1527E+02	0.099083	6083.6	1.0301E+01
8.1543E+02	0.097724	6083.6	1.0302E+01
8.1559E+02	0.096383	6083.6	1.0303E+01
8.1574E+02	0.095060	6083.6	1.0303E+01
8.1589E+02	0.093756	6083.6	1.0304E+01
8.1603E+02	0.092470	6083.6	1.0305E+01
8.1617E+02	0.091201	6083.6	1.0305E+01
8.1631E+02	0.089950	6083.6	1.0306E+01
8.1644E+02	0.088716	6083.6	1.0306E+01
8.1657E+02	0.087498	6083.6	1.0307E+01
8.1670E+02	0.086298	6083.6	1.0307E+01
8.1682E+02	0.085114	6083.6	1.0308E+01
8.1694E+02	0.083946	6083.6	1.0308E+01
8.1706E+02	0.082794	6083.6	1.0309E+01
8.1717E+02	0.081658	6083.6	1.0309E+01
8.1728E+02	0.080538	6083.6	1.0310E+01
8.1739E+02	0.079433	6083.6	1.0310E+01
8.1749E+02	0.078343	6083.6	1.0311E+01
8.1759E+02	0.077268	6083.6	1.0311E+01
8.1769E+02	0.076208	6083.6	1.0312E+01
8.1778E+02	0.075162	6083.6	1.0312E+01
8.1788E+02	0.074131	6083.6	1.0312E+01
8.1797E+02	0.073114	6083.6	1.0313E+01
8.1806E+02	0.072111	6083.6	1.0313E+01
8.1814E+02	0.071121	6083.6	1.0313E+01
8.1822E+02	0.070146	6083.6	1.0314E+01
8.1831E+02	0.069183	6083.6	1.0314E+01
8.1838E+02	0.068234	6083.6	1.0314E+01
8.1846E+02	0.067298	6083.6	1.0315E+01
8.1854E+02	0.066374	6083.6	1.0315E+01
8.1861E+02	0.065464	6083.6	1.0315E+01
8.1868E+02	0.064565	6083.6	1.0316E+01
8.1875E+02	0.063680	6083.6	1.0316E+01
8.1881E+02	0.062806	6083.6	1.0316E+01
8.1888E+02	0.061944	6083.6	1.0316E+01
8.1894E+02	0.061094	6083.6	1.0317E+01
8.1900E+02	0.060256	6083.6	1.0317E+01
8.1906E+02	0.059429	6083.6	1.0317E+01
8.1912E+02	0.058614	6083.6	1.0317E+01
8.1918E+02	0.057810	6083.6	1.0318E+01
8.1923E+02	0.057016	6083.6	1.0318E+01
8.1929E+02	0.056234	6083.6	1.0318E+01
8.1934E+02	0.055463	6083.6	1.0318E+01
8.1939E+02	0.054702	6083.6	1.0319E+01
8.1944E+02	0.053951	6083.6	1.0319E+01
8.1949E+02	0.053211	6083.6	1.0319E+01
8.1953E+02	0.052481	6083.6	1.0319E+01
8.1958E+02	0.051761	6083.6	1.0319E+01
8.1962E+02	0.051050	6083.6	1.0320E+01
8.1967E+02	0.050350	6083.6	1.0320E+01
8.1971E+02	0.049659	6083.6	1.0320E+01
8.1975E+02	0.048978	6083.6	1.0320E+01
8.1979E+02	0.048306	6083.6	1.0320E+01
8.1983E+02	0.047643	6083.6	1.0320E+01
8.1986E+02	0.046989	6083.6	1.0321E+01
8.1990E+02	0.046345	6083.6	1.0321E+01
8.1994E+02	0.045709	6083.6	1.0321E+01
8.1997E+02	0.045082	6083.6	1.0321E+01
8.2000E+02	0.044463	6083.6	1.0321E+01
8.2004E+02	0.043853	6083.6	1.0321E+01
8.2007E+02	0.043251	6083.6	1.0321E+01
8.2010E+02	0.042658	6083.6	1.0322E+01
8.2013E+02	0.042073	6083.6	1.0322E+01
8.2016E+02	0.041495	6083.6	1.0322E+01
8.2019E+02	0.040926	6083.6	1.0322E+01
8.2021E+02	0.040365	6083.6	1.0322E+01
8.2024E+02	0.039811	6083.6	1.0322E+01
8.2027E+02	0.039264	6083.6	1.0322E+01
8.2029E+02	0.038726	6083.6	1.0322E+01
8.2032E+02	0.038194	6083.6	1.0322E+01
8.2034E+02	0.037670	6083.6	1.0323E+01
8.2036E+02	0.037154	6083.6	1.0323E+01
8.2039E+02	0.036644	6083.6	1.0323E+01
8.2041E+02	0.036141	6083.6	1.0323E+01
8.2043E+02	0.035645	6083.6	1.0323E+01
8.2045E+02	0.035156	6083.6	1.0323E+01
8.2047E+02	0.034674	6083.6	1.0323E+01
8.2049E+02	0.034198	6083.6	1.0323E+01
8.2051E+02	0.033729	6083.6	1.0323E+01
8.2053E+02	0.033266	6083.6	1.0323E+01
8.2055E+02	0.032810	6083.6	1.0323E+01
8.2057E+02	0.032359	6083.6	1.0324E+01
8.2058E+02	0.031915	6083.6	1.0324E+01
8.2060E+02	0.031477	6083.6	1.0324E+01
8.2062E+02	0.031046	6083.6	1.0324E+01
8.2063E+02	0.030620	6083.6	1.0324E+01
8.2065E+02	0.030200	6083.6	1.0324E+01
8.2066E+02	0.029785	6083.6	1.0324E+01
8.2068E+02	0.029376	6083.6	1.0324E+01
8.2069E+02	0.028973	6083.6	1.0324E+01
8.2071E+02	0.028576	6083.6	1.0324E+01
8.2072E+02	0.028184	6083.6	1.0324E+01
8.2073E+02	0.027797	6083.6	1.0324E+01
8.2074E+02	0.027416	6083.6	1.0324E+01
8.2076E+02	0.027040	6083.6	1.0324E+01
8.2077E+02	0.026669	6083.6	1.0324E+01
8.2078E+02	0.026303	6083.6	1.0324E+01
8.2079E+02	0.025942	6083.6	1.0324E+01
8.2080E+02	0.025586	6083.6	1.0324E+01
8.2081E+02	0.025235	6083.6	1.0325E+01
8.2082E+02	0.024889	6083.6	1.0325E+01
8.2083E+02	0.024547	6083.6	1.0325E+01
8.2084E+02	0.024210	6083.6	1.0325E+01
8.2085E+02	0.023878	6083.6	1.0325E+01
8.2086E+02	0.023550	6083.6	1.0325E+01
8.2087E+02	0.023227	6083.6	1.0325E+01
8.2088E+02	0.022909	6083.6	1.0325E+01
8.2089E+02	0.022594	6083.6	1.0325E+01
8.2090E+02	0.022284	6083.6	1.0325E+01
8.2091E+02	0.021979	6083.6	1.0325E+01
8.2091E+02	0.021677	6083.6	1.0325E+01
8.2092E+02	0.021380	6083.6	1.0325E+01
8.2093E+02	0.021086	6083.6	1.0325E+01
8.2094E+02	0.020797	6083.6	1.0325E+01
8.2094E+02	0.020512	6083.6	1.0325E+01
8.2095E+02	0.020230	6083.6	1.0325E+01
8.2096E+02	0.019953	6083.6	1.0325E+01
8.2096E+02	0.019679	6083.6	1.0325E+01
8.2097E+02	0.019409	6083.6	1.0325E+01
8.2098E+02	0.019143	6083.6	1.0325E+01
8.2098E+02	0.018880	6083.6	1.0325E+01
8.2099E+02	0.018621	6083.6	1.0325E+01
8.2100E+02	0.018365	6083.6	1.0325E+01
8.2100E+02	0.018113	6083.6	1.0325E+01
8.2101E+02	0.017865	6083.6	1.0325E+01
8.2101E+02	0.017620	6083.6	1.0325E+01
8.2102E+02	0.017378	6083.6	1.0325E+01
8.2102E+02	0.017140	6083.6	1.0325E+01
8.2103E+02	0.016904	6083.6	1.0325E+01
8.2103E+02	0.016672	6083.6	1.0325E+01
8.2104E+02	0.016444	6083.6	1.0325E+01
8.2104E+02	0.016218	6083.6	1.0325E+01
8.2104E+02	0.015996	6083.6	1.0325E+01
8.2105E+02	0.015776	6083.6	1.0326E+01
8.2105E+02	0.015560	6083.6	1.0326E+01
8.2106E+02	0.015346	6083.6	1.0326E+01
8.2106E+02	0.015136	6083.6	1.0326E+01
8.2106E+02	0.014928	6083.6	1.0326E+01
8.2107E+02	0.014723	6083.6	1.0326E+01
8.2107E+02	0.014521	6083.6	1.0326E+01
8.2107E+02	0.014322	6083.6	1.0326E+01
8.2108E+02	0.014125	6083.6	1.0326E+01
8.2108E+02	0.013932	6083.6	1.0326E+01
8.2108E+02	0.013740	6083.6	1.0326E+01
8.2109E+02	0.013552	6083.6	1.0326E+01
8.2109E+02	0.013366	6083.6	1.0326E+01
8.2109E+02	0.013183	6083.6	1.0326E+01
8.2110E+02	0.013002	6083.6	1.0326E+01
8.2110E+02	0.012823	6083.6	1.0326E+01
8.2110E+02	0.012647	6083.6	1.0326E+01
8.2110E+02	0.012474	6083.6	1.0326E+01
8.2111E+02	0.012303	6083.6	1.0326E+01
8.2111E+02	0.012134	6083.6	1.0326E+01
8.2111E+02	0.011967	6083.6	1.0326E+01
8.2111E+02	0.011803	6083.6	1.0326E+01
8.2112E+02	0.011641	6083.6	1.0326E+01
8.2112E+02	0.011482	6083.6	1.0326E+01
8.2112E+02	0.011324	6083.6	1.0326E+01
8.2112E+02	0.011169	6083.6	1.0326E+01
8.2113E+02	0.011015	6083.6	1.0326E+01
8.2113E+02	0.010864	6083.6	1.0326E+01
8.2113E+02	0.010715	6083.6	1.0326E+01
8.2113E+02	0.010568	6083.6	1.0326E+01
8.2113E+02	0.010423	6083.6	1.0326E+01
8.2114E+02	0.010280	6083.6	1.0326E+01
8.2114E+02	0.010000	6083.6	1.0326E+01